    Step 	 temperature 	 pressure 	 Potential Energy 	 Kinetic Energy 	 Sum Energy

       0	 2.23826	-1.45742	        -418.977	         421.442	         2.46556
       1	 2.23833	-1.45388	        -418.991	         421.456	         2.46452
       2	 2.23849	-1.44307	        -419.022	         421.484	         2.46168
       3	 2.23853	-1.42442	        -419.037	         421.493	         2.45681
       4	 2.23816	-1.39699	        -418.975	         421.424	         2.44955
       5	 2.23691	-1.35936	        -418.749	         421.188	         2.43936
       6	  2.2341	-1.30963	        -418.237	         420.662	         2.42555
       7	 2.22886	-1.24527	        -417.273	          419.68	          2.4074
       8	 2.22005	-1.16312	        -415.643	         418.028	         2.38449
       9	 2.20625	-1.05939	        -413.083	         415.441	         2.35743
      10	 2.18589	-0.930046	        -409.294	         411.623	         2.32929
      11	 2.15752	-0.771631	        -403.996	         406.304	         2.30755
      12	 2.12043	-0.583067	        -397.044	         399.349	         2.30448
      13	 2.07552	-0.368175	        -388.596	         390.928	          2.3315
      14	 2.02597	-0.137629	        -379.253	         381.638	         2.38552
      15	  1.9768	0.0924046	        -369.977	         372.418	          2.4417
      16	 1.93294	0.305934	        -361.722	         364.195	         2.47273
      17	 1.89734	0.493086	        -355.045	          357.52	         2.47477
      18	 1.87057	0.651233	        -350.038	         352.501	         2.46294
      19	 1.85181	0.782019	        -346.532	         348.982	         2.45007
      20	 1.83983	0.888403	        -344.298	         346.737	         2.43904
      21	 1.83343	0.973603	        -343.109	         345.537	         2.42742
      22	 1.83133	 1.04123	        -342.729	         345.142	         2.41344
      23	 1.83212	 1.09546	        -342.892	          345.29	         2.39841
      24	 1.83438	 1.14058	        -343.328	         345.715	          2.3863
      25	 1.83703	 1.18002	        -343.829	         346.212	         2.38256
      26	 1.83972	 1.21508	        -344.324	         346.716	         2.39196
      27	 1.84311	 1.24411	        -344.938	         347.351	         2.41305
      28	 1.84876	 1.26276	        -345.975	         348.411	         2.43635
      29	 1.85833	 1.26638	        -347.761	         350.205	         2.44416
      30	 1.87234	  1.2536	        -350.406	         352.832	         2.42607
      31	 1.88951	 1.22851	        -353.663	         356.052	         2.38865
      32	  1.9072	 1.19922	        -357.019	         359.369	         2.34997
      33	 1.92262	 1.17425	        -359.937	          362.26	         2.32325
      34	 1.93395	  1.1593	        -362.067	         364.384	         2.31617
      35	 1.94091	 1.15551	        -363.359	         365.689	         2.33015
      36	 1.94487	 1.15924	        -364.072	         366.431	         2.35844
      37	 1.94825	 1.16365	        -364.679	         367.064	         2.38584
      38	 1.95337	 1.16225	        -365.628	         368.024	         2.39655
      39	 1.96126	 1.15237	        -367.119	         369.505	         2.38559
      40	 1.97124	 1.13648	        -369.019	         371.376	         2.35699
      41	 1.98115	 1.12125	        -370.916	         373.234	         2.31758
      42	 1.98806	 1.11558	         -372.25	          374.53	         2.27943
      43	  1.9893	 1.12763	        -372.502	         374.762	          2.2595
      44	 1.98372	 1.16093	        -371.445	         373.715	          2.2701
      45	 1.97253	 1.21193	        -369.311	         371.617	         2.30611
      46	 1.95881	 1.27133	        -366.703	         369.046	         2.34247
      47	  1.9457	  1.3296	        -364.232	         366.587	          2.3548
      48	 1.93466	 1.38211	         -362.17	         364.518	         2.34729
      49	 1.92568	 1.42873	        -360.492	         362.834	         2.34209
      50	 1.91851	 1.46974	        -359.145	         361.489	          2.3438
      51	 1.91314	 1.50457	        -358.141	         360.482	         2.34166
      52	 1.90933	 1.53346	        -357.431	         359.767	         2.33607
      53	 1.90662	 1.55732	        -356.924	          359.26	         2.33571
      54	 1.90489	 1.57599	        -356.594	         358.935	          2.3412
      55	 1.90442	 1.58808	          -356.5	         358.848	         2.34724
      56	 1.90564	 1.59198	        -356.724	         359.075	          2.3512
      57	 1.90883	 1.58658	        -357.321	         359.675	         2.35385
      58	 1.91417	 1.57138	         -358.32	         360.675	         2.35468
      59	 1.92157	 1.54673	        -359.713	         362.063	         2.35066
      60	 1.93057	 1.51438	         -361.41	          363.75	          2.3401
      61	 1.94016	 1.47778	        -363.223	         365.548	         2.32486
      62	 1.94897	  1.4415	         -364.89	           367.2	         2.30982
      63	 1.95565	 1.40999	        -366.152	         368.452	         2.30016
      64	 1.95925	 1.38639	        -366.829	         369.128	         2.29869
      65	 1.95952	 1.37171	         -366.87	         369.178	         2.30817
      66	 1.95711	 1.36418	        -366.397	         368.727	         2.32993
      67	 1.95367	 1.35908	        -365.722	         368.082	         2.36007
      68	 1.95148	 1.34982	        -365.281	         367.671	         2.38999
      69	 1.95276	 1.32996	        -365.502	         367.911	          2.4096
      70	 1.95892	 1.29561	        -366.652	         369.065	         2.41297
      71	 1.97003	 1.24672	        -368.749	         371.149	         2.40045
      72	 1.98492	 1.18704	        -371.563	          373.94	         2.37778
      73	 2.00159	 1.12271	        -374.712	         377.065	         2.35385
      74	 2.01791	 1.06022	        -377.791	         380.127	         2.33588
      75	 2.03224	 1.00472	        -380.486	         382.814	         2.32709
      76	 2.04365	0.959145	        -382.626	         384.953	         2.32712
      77	 2.05201	0.924105	        -384.186	          386.52	         2.33386
      78	 2.05773	0.898467	        -385.249	         387.592	         2.34296
      79	 2.06149	0.880302	        -385.948	         388.298	         2.35013
      80	  2.0639	0.867815	        -386.395	          388.75	         2.35482
      81	 2.06538	 0.85971	        -386.668	         389.026	         2.35798
      82	 2.06623	0.855007	        -386.824	         389.186	         2.36142
      83	 2.06673	0.852795	        -386.916	          389.28	         2.36369
      84	 2.06704	0.852535	        -386.977	         389.338	         2.36135
      85	 2.06695	 0.85477	        -386.971	         389.322	         2.35085
      86	 2.06572	0.861649	        -386.757	          389.09	          2.3331
      87	 2.06215	0.876617	        -386.108	         388.421	         2.31362
      88	 2.05508	0.903076	        -384.795	         387.096	         2.30172
      89	 2.04406	0.942336	        -382.722	         385.029	         2.30635
      90	 2.02994	0.991766	        -380.052	         382.382	         2.33028
      91	 2.01502	 1.04455	        -377.223	         379.585	         2.36181
      92	 2.00204	 1.09243	        -374.773	         377.151	         2.37894
      93	 1.99263	  1.1305	        -373.017	         375.386	          2.3686
      94	 1.98643	 1.15978	         -371.88	         374.223	         2.34299
      95	  1.9819	 1.18491	        -371.052	         373.375	         2.32293
      96	  1.9777	 1.20984	        -370.273	         372.587	         2.31388
      97	 1.97311	  1.2365	        -369.422	         371.726	         2.30459
      98	 1.96742	 1.26674	        -368.375	         370.659	           2.284
      99	 1.95929	 1.30412	        -366.874	         369.135	          2.2609
     100	 1.94743	 1.35201	        -364.653	         366.912	         2.25854
     101	 1.93218	 1.40882	        -361.761	         364.053	         2.29129
     102	 1.91648	 1.46526	        -358.758	         361.108	         2.35023
     103	 1.90509	 1.50663	        -356.567	         358.973	          2.4059
     104	 1.90233	 1.51969	        -356.029	         358.454	         2.42565
     105	 1.90971	 1.49975	         -357.43	         359.838	         2.40797
     106	 1.92577	 1.45124	        -360.471	          362.85	         2.37874
     107	 1.94773	 1.38259	        -364.613	         366.968	         2.35498
     108	 1.97289	 1.30212	        -369.348	         371.685	         2.33782
     109	 1.99903	 1.21703	        -374.261	         376.587	         2.32558
     110	 2.02439	 1.13336	        -379.023	         381.341	         2.31716
     111	  2.0476	   1.056	        -383.383	         385.694	         2.31061
     112	 2.06762	0.988951	        -387.144	         389.446	         2.30248
     113	 2.08342	0.935897	        -390.118	          392.41	         2.29129
     114	 2.09404	0.900316	        -392.119	           394.4	         2.28139
     115	 2.09888	0.884407	        -393.025	         395.309	         2.28369
     116	 2.09851	0.886896	        -392.931	         395.239	         2.30763
     117	 2.09505	 0.90166	        -392.247	         394.589	         2.34278
     118	 2.09127	0.920362	        -391.523	         393.881	         2.35809
     119	 2.08844	0.938946	        -391.018	         393.352	         2.33337
     120	 2.08503	0.961684	        -390.426	         392.712	         2.28565
     121	 2.07782	0.997702	         -389.11	          391.36	         2.24999
     122	 2.06443	 1.05347	          -386.6	         388.849	          2.2489
     123	 2.04507	 1.12773	        -382.937	         385.219	         2.28243
     124	 2.02256	 1.21144	         -378.67	         380.999	         2.32921
     125	 2.00071	 1.29253	        -374.544	         376.901	         2.35659
     126	 1.98195	 1.36289	        -371.036	         373.384	         2.34778
     127	 1.96626	 1.42192	        -368.123	         370.443	         2.31985
     128	 1.95218	 1.47333	        -365.501	         367.803	         2.30144
     129	 1.93875	 1.51938	        -362.978	         365.283	         2.30445
     130	 1.92642	  1.5582	        -360.651	         362.973	         2.32197
     131	 1.91677	 1.58505	        -358.818	         361.162	         2.34378
     132	 1.91163	 1.59457	        -357.836	         360.198	         2.36218
     133	  1.9125	 1.58265	         -357.99	         360.362	          2.3717
     134	 1.92013	 1.54762	        -359.421	         361.793	          2.3725
     135	 1.93447	 1.49044	        -362.114	          364.48	          2.3662
     136	 1.95459	 1.41456	        -365.909	         368.254	         2.34491
     137	 1.97823	 1.32746	        -370.392	         372.686	         2.29401
     138	 2.00096	 1.24293	        -374.732	         376.948	          2.2162
     139	 2.01679	 1.17948	        -377.771	         379.917	         2.14546
     140	 2.02092	 1.15224	        -378.555	         380.691	         2.13606
     141	 2.01358	 1.16159	          -377.1	         379.314	         2.21454
     142	 2.00099	 1.18931	         -374.65	         376.953	          2.3035
     143	 1.98964	 1.21543	        -372.537	         374.825	         2.28823
     144	 1.97966	 1.23978	        -370.723	         372.954	         2.23128
     145	 1.96851	 1.27063	        -368.593	         370.864	         2.27066
     146	 1.95861	 1.29983	        -366.653	         369.008	         2.35476
     147	 1.95464	 1.31217	        -365.908	         368.263	         2.35442
     148	 1.95627	 1.30885	        -366.266	         368.568	         2.30212
     149	 1.95926	 1.30276	        -366.857	         369.129	         2.27125
     150	 1.96017	 1.30358	        -367.037	           369.3	         2.26262
     151	 1.95756	 1.31534	        -366.541	         368.811	         2.27026
     152	  1.9518	 1.33712	        -365.428	          367.73	         2.30227
     153	  1.9451	 1.36234	        -364.129	         366.474	         2.34495
     154	 1.94035	 1.38229	        -363.218	         365.583	         2.36532
     155	  1.9389	 1.39284	        -362.956	         365.311	         2.35509
     156	 1.93994	 1.39638	         -363.17	         365.507	          2.3372
     157	 1.94193	 1.39728	        -363.552	          365.88	         2.32784
     158	 1.94381	 1.39836	        -363.908	         366.232	         2.32388
     159	 1.94499	 1.40107	        -364.137	         366.455	         2.31796
     160	   1.945	 1.40678	        -364.144	         366.455	         2.31051
     161	 1.94332	 1.41679	        -363.834	          366.14	         2.30597
     162	 1.93977	 1.43152	        -363.165	         365.475	          2.3094
     163	 1.93482	 1.44942	        -362.222	         364.546	         2.32362
     164	  1.9297	 1.46662	        -361.243	         363.587	         2.34401
     165	 1.92605	 1.47812	        -360.545	         362.903	         2.35833
     166	 1.92499	 1.48044	        -360.348	         362.703	         2.35561
     167	 1.92638	 1.47388	        -360.628	         362.964	         2.33613
     168	 1.92887	 1.46249	         -361.12	          363.43	         2.31033
     169	 1.93062	 1.45169	        -361.469	          363.76	         2.29081
     170	 1.93029	 1.44556	        -361.412	         363.698	         2.28563
     171	 1.92765	 1.44481	        -360.904	         363.202	         2.29845
     172	 1.92391	 1.44598	        -360.174	         362.502	         2.32761
     173	 1.92158	 1.44193	        -359.702	         362.064	         2.36215
     174	 1.92341	 1.42455	        -360.031	         362.408	         2.37698
     175	 1.93062	 1.39027	        -361.409	          363.76	         2.35066
     176	 1.94161	 1.34406	        -363.515	          365.82	         2.30504
     177	  1.9536	 1.29479	        -365.773	         368.069	         2.29585
     178	 1.96624	 1.24431	        -368.096	         370.438	         2.34217
     179	 1.98245	 1.18436	        -371.096	         373.477	         2.38152
     180	 2.00422	 1.10931	        -375.218	         377.559	         2.34117
     181	 2.02812	 1.03003	        -379.794	         382.042	         2.24711
     182	 2.04687	0.968767	        -383.384	         385.556	         2.17234
     183	 2.05424	0.943941	        -384.792	         386.938	         2.14544
     184	  2.0478	 0.96255	        -383.568	          385.73	         2.16207
     185	 2.02899	 1.02019	        -379.993	         382.203	         2.21007
     186	 2.00194	 1.10414	        -374.869	         377.131	         2.26209
     187	 1.97128	 1.19974	         -369.09	         371.384	          2.2935
     188	 1.94052	 1.29582	        -363.291	         365.615	         2.32384
     189	 1.91299	 1.38162	         -358.07	         360.453	         2.38355
     190	 1.89332	 1.44224	        -354.322	         356.765	         2.44252
     191	 1.88548	 1.46472	        -352.847	         355.296	         2.44968
     192	 1.88978	 1.44775	        -353.693	         356.102	          2.4091
     193	 1.90291	 1.40112	        -356.204	         358.563	         2.35956
     194	 1.92055	 1.33769	        -359.546	         361.871	          2.3249
     195	 1.93935	 1.26773	        -363.087	         365.396	         2.30999
     196	  1.9575	 1.19721	        -366.488	           368.8	         2.31162
     197	 1.97453	  1.1283	        -369.671	         371.992	         2.32172
     198	 1.99067	   1.061	        -372.689	         375.018	          2.3297
     199	 2.00609	0.995463	         -375.58	          377.91	         2.32982
     200	 2.02051	0.933104	        -378.287	         380.615	         2.32791
     201	 2.03358	0.875562	        -380.731	         383.064	         2.33365
     202	 2.04546	0.822831	        -382.944	         385.292	         2.34863
     203	 2.05693	0.773077	         -385.08	         387.442	         2.36223
     204	 2.06862	0.724823	        -387.273	         389.634	         2.36183
     205	  2.0802	0.679497	        -389.461	         391.806	         2.34409
     206	 2.09008	0.642121	        -391.344	         393.658	         2.31407
     207	 2.09587	0.619946	        -392.463	         394.744	         2.28112
     208	 2.09516	0.620127	        -392.355	         394.611	         2.25598
     209	 2.08648	0.646968	        -390.729	         392.983	          2.2537
     210	 2.07048	0.698528	        -387.694	         389.983	         2.28848
     211	 2.05065	0.764343	        -383.921	         386.265	         2.34453
     212	 2.03168	0.829899	        -380.341	         382.707	         2.36668
     213	 2.01586	0.887857	        -377.399	         379.741	         2.34231
     214	 2.00232	0.940765	        -374.877	         377.204	         2.32724
     215	 1.99012	0.991029	        -372.577	         374.916	         2.33931
     216	 1.97959	 1.03691	        -370.598	         372.942	         2.34405
     217	 1.97078	 1.07805	        -368.954	         371.289	         2.33427
     218	 1.96288	 1.11685	        -367.478	         369.808	         2.33045
     219	 1.95552	 1.15444	        -366.085	         368.427	         2.34275
     220	 1.94952	 1.18832	        -364.936	         367.303	         2.36752
     221	 1.94665	 1.21329	        -364.377	         366.765	         2.38735
     222	 1.94821	  1.2253	        -364.676	         367.058	         2.38165
     223	 1.95369	 1.22573	        -365.734	         368.085	         2.35112
     224	 1.96081	 1.22118	          -367.1	          369.42	         2.31966
     225	 1.96713	 1.21863	          -368.3	         370.606	         2.30535
     226	 1.97138	 1.22151	        -369.096	         371.401	         2.30501
     227	 1.97339	 1.22992	         -369.47	         371.778	         2.30789
     228	 1.97353	 1.24254	        -369.491	         371.805	         2.31361
     229	 1.97263	 1.25686	        -369.305	         371.637	         2.33168
     230	 1.97243	 1.26782	        -369.235	         371.599	         2.36311
     231	 1.97537	 1.26816	        -369.762	         372.151	         2.38836
     232	 1.98318	 1.25288	        -371.233	         373.615	         2.38206
     233	 1.99516	 1.22435	        -373.517	         375.861	          2.3441
     234	 2.00825	 1.19211	        -376.013	         378.315	         2.30203
     235	 2.01888	 1.16713	         -378.03	         380.309	         2.27938
     236	 2.02479	 1.15643	         -379.14	         381.417	         2.27758
     237	 2.02535	 1.16212	        -379.235	         381.522	         2.28736
     238	 2.02108	  1.1829	        -378.417	         380.721	          2.3034
     239	 2.01321	 1.21527	        -376.918	         379.244	         2.32586
     240	 2.00355	 1.25385	        -375.082	         377.434	          2.3525
     241	 1.99422	 1.29227	        -373.312	         375.684	         2.37287
     242	 1.98678	 1.32557	        -371.915	          374.29	         2.37484
     243	 1.98149	  1.3527	         -370.94	         373.297	         2.35696
     244	 1.97716	 1.37681	        -370.155	         372.486	         2.33059
     245	 1.97199	 1.40285	        -369.206	         371.516	         2.30979
     246	 1.96459	 1.43444	        -367.824	         370.129	          2.3049
     247	 1.95483	 1.47152	        -365.978	         368.299	         2.32083
     248	 1.94419	 1.50929	        -363.947	         366.303	         2.35654
     249	 1.93561	 1.53872	        -362.292	         364.694	         2.40207
     250	 1.93261	 1.54909	        -361.696	         364.133	         2.43727
     251	 1.93781	 1.53255	        -362.664	         365.107	         2.44337
     252	 1.95157	 1.48805	        -365.268	         367.687	         2.41894
     253	 1.97188	 1.42176	        -369.117	         371.496	          2.3789
     254	 1.99544	  1.3439	        -373.571	         375.912	         2.34146
     255	 2.01894	 1.26466	        -378.004	          380.32	         2.31607
     256	 2.03994	 1.19184	        -381.955	         384.257	         2.30189
     257	 2.05685	 1.13059	        -385.134	         387.428	         2.29433
     258	 2.06871	 1.08415	        -387.361	         389.652	         2.29071
     259	 2.07505	 1.05423	        -388.544	          390.84	         2.29531
     260	 2.07614	 1.04006	        -388.731	         391.045	         2.31395
     261	 2.07339	 1.03747	        -388.183	         390.528	         2.34589
     262	 2.06919	 1.03914	        -387.358	         389.742	         2.38321
     263	 2.06636	 1.03652	        -386.797	         389.211	         2.41377
     264	 2.06717	 1.02269	        -386.936	         389.363	         2.42731
     265	 2.07263	0.994594	        -387.963	         390.385	         2.42224
     266	 2.08224	0.953672	        -389.785	         392.189	         2.40408
     267	 2.09446	0.904729	        -392.098	          394.48	         2.38227
     268	 2.10734	0.853798	        -394.529	         396.895	         2.36529
     269	 2.11923	0.806156	        -396.767	         399.124	         2.35704
     270	  2.1291	0.765273	        -398.619	         400.975	         2.35615
     271	 2.13654	0.732833	        -400.011	          402.37	          2.3586
     272	 2.14144	0.709545	         -400.93	         403.288	         2.35881
     273	 2.14364	0.696191	        -401.346	         403.701	          2.3541
     274	 2.14271	0.694239	        -401.182	         403.527	         2.34503
     275	 2.13801	0.705732	         -400.31	         402.644	         2.33435
     276	 2.12886	0.732623	        -398.603	         400.929	          2.3262
     277	 2.11485	0.775974	         -395.98	         398.303	         2.32263
     278	 2.09605	0.835363	        -392.452	         394.777	         2.32563
     279	 2.07312	0.908446	        -388.141	         390.478	         2.33678
     280	 2.04746	0.990649	         -383.31	         385.667	         2.35669
     281	 2.02118	 1.07518	        -378.356	          380.74	         2.38315
     282	 1.99686	 1.15379	         -373.77	          376.18	         2.40993
     283	 1.97707	  1.2183	        -370.037	         372.469	         2.43191
     284	 1.96391	 1.26192	        -367.555	         370.001	         2.44648
     285	 1.95877	  1.2801	        -366.586	         369.037	         2.45092
     286	 1.96204	 1.27135	        -367.211	         369.651	         2.43986
     287	 1.97281	 1.23831	        -369.258	         371.669	         2.41089
     288	 1.98875	 1.18792	        -372.285	         374.658	         2.37306
     289	 2.00692	 1.12926	        -375.721	         378.065	         2.34426
     290	 2.02504	 1.06965	        -379.122	         381.462	         2.34009
     291	 2.04257	 1.01133	        -382.391	          384.75	         2.35893
     292	 2.06046	0.952022	         -385.73	         388.105	         2.37516
     293	 2.07939	0.890231	        -389.288	         391.653	         2.36523
     294	 2.09823	0.829735	        -392.847	         395.186	           2.339
     295	 2.11468	0.777792	         -395.95	         398.271	         2.32103
     296	 2.12686	0.740126	        -398.236	         400.555	         2.31924
     297	 2.13407	0.718888	        -399.581	         401.907	         2.32555
     298	 2.13635	0.713964	        -400.003	         402.333	         2.33032
     299	 2.13386	  0.7248	        -399.536	         401.866	         2.33064
     300	 2.12667	0.751031	        -398.188	         400.518	         2.33044
     301	 2.11496	0.791824	        -395.988	         398.324	         2.33566
     302	 2.09946	0.844694	        -393.066	         395.416	         2.35035
     303	  2.0816	0.904867	        -389.697	         392.068	         2.37122
     304	  2.0633	0.966197	         -386.25	         388.638	         2.38721
     305	 2.04609	 1.02362	        -383.023	         385.411	         2.38775
     306	  2.0304	 1.07541	        -380.096	         382.469	         2.37319
     307	  2.0156	 1.12299	        -377.338	         379.693	          2.3556
     308	 2.00087	 1.16842	        -374.582	         376.932	         2.34962
     309	 1.98629	 1.21124	        -371.835	         374.197	         2.36266
     310	 1.97332	 1.24695	        -369.375	         371.765	         2.39069
     311	  1.9645	 1.26805	        -367.692	         370.111	         2.41877
     312	 1.96223	 1.26751	        -367.258	         369.686	         2.42782
     313	 1.96743	 1.24294	         -368.25	         370.661	          2.4111
     314	 1.97898	 1.19807	        -370.448	         372.827	         2.37928
     315	 1.99444	 1.14066	         -373.38	         375.726	         2.34634
     316	 2.01103	 1.07938	         -376.52	         378.837	         2.31698
     317	 2.02617	 1.02233	        -379.381	         381.675	         2.29333
     318	 2.03778	0.976037	         -381.57	         383.852	         2.28253
     319	 2.04493	0.943724	          -382.9	         385.193	         2.29218
     320	 2.04822	0.923888	        -383.491	         385.809	         2.31859
     321	 2.04948	0.911275	        -383.701	         386.046	         2.34528
     322	 2.05059	 0.90047	        -383.897	         386.253	          2.3559
     323	 2.05223	 0.88946	        -384.215	         386.561	         2.34643
     324	 2.05368	0.880433	        -384.506	         386.833	         2.32658
     325	 2.05337	0.877851	        -384.468	         386.775	         2.30705
     326	 2.04981	0.885868	         -383.81	         386.108	         2.29747
     327	 2.04235	0.906107	        -382.404	         384.709	         2.30518
     328	 2.03173	0.936048	        -380.384	         382.718	         2.33356
     329	  2.0203	0.968477	        -378.197	         380.575	         2.37866
     330	  2.0116	0.992772	        -376.518	         378.943	          2.4254
     331	 2.00913	0.998433	        -376.028	          378.48	         2.45252
     332	 2.01483	0.979774	        -377.102	         379.549	          2.4466
     333	 2.02808	 0.93884	         -379.62	         382.033	         2.41268
     334	 2.04605	0.884285	        -383.034	         385.403	         2.36915
     335	 2.06505	0.827399	        -386.634	         388.965	         2.33128
     336	 2.08171	 0.77848	        -389.783	         392.088	         2.30497
     337	 2.09358	0.745024	        -392.023	         394.315	         2.29209
     338	 2.09942	0.731014	        -393.115	          395.41	         2.29453
     339	 2.09931	0.736369	        -393.075	          395.39	         2.31431
     340	 2.09477	0.756703	         -392.19	         394.538	         2.34775
     341	 2.08831	0.784459	        -390.946	         393.327	         2.38094
     342	 2.08239	0.812133	        -389.821	         392.216	         2.39552
     343	 2.07811	0.836142	        -389.029	         391.414	         2.38503
     344	 2.07482	0.858144	        -388.435	         390.796	         2.36174
     345	 2.07091	0.882548	         -387.72	         390.065	         2.34467
     346	 2.06523	0.912523	        -386.653	         388.998	         2.34493
     347	 2.05783	0.947573	         -385.25	         387.611	         2.36091
     348	 2.04995	0.983811	        -383.752	         386.134	         2.38236
     349	 2.04326	 1.01615	        -382.483	          384.88	         2.39724
     350	 2.03895	 1.04092	        -381.673	         384.072	         2.39833
     351	 2.03718	 1.05752	        -381.354	         383.739	         2.38534
     352	 2.03705	 1.06852	        -381.351	         383.716	         2.36453
     353	 2.03707	 1.07827	        -381.376	         383.718	         2.34271
     354	 2.03563	 1.09133	        -381.125	         383.448	         2.32339
     355	  2.0314	 1.11145	        -380.346	         382.656	         2.30967
     356	 2.02369	 1.14044	        -378.901	         381.211	         2.30989
     357	 2.01309	 1.17637	        -376.888	         379.223	          2.3355
     358	 2.00217	 1.21147	        -374.789	         377.176	         2.38661
     359	 1.99517	 1.23297	        -373.426	         375.862	         2.43524
     360	 1.99581	 1.22963	        -373.536	         375.982	         2.44648
     361	 2.00507	 1.19886	        -375.293	         377.718	         2.42513
     362	 2.02127	 1.14621	        -378.358	         380.757	         2.39871
     363	 2.04182	 1.07991	        -382.237	         384.609	         2.37283
     364	  2.0639	 1.00881	        -386.408	         388.749	         2.34107
     365	 2.08437	0.942839	         -390.28	         392.587	         2.30707
     366	 2.10011	0.891875	        -393.258	         395.539	         2.28133
     367	 2.10877	0.863285	        -394.892	         397.163	         2.27051
     368	 2.10939	 0.86016	        -395.001	         397.279	           2.278
     369	 2.10265	0.880574	        -393.712	         396.015	         2.30363
     370	 2.09085	0.917745	        -391.461	         393.803	         2.34201
     371	 2.07734	0.961598	        -388.892	         391.269	           2.377
     372	 2.06522	 1.00255	        -386.612	         388.996	         2.38447
     373	  2.0557	 1.03651	        -384.858	         387.212	         2.35395
     374	 2.04765	 1.06662	        -383.386	         385.703	         2.31728
     375	 2.03992	  1.0966	        -381.923	         384.253	          2.3302
     376	  2.0344	 1.12096	        -380.837	         383.218	         2.38009
     377	 2.03445	 1.12918	        -380.856	         383.228	         2.37225
     378	 2.03925	 1.12381	        -381.827	         384.127	         2.29976
     379	 2.04343	 1.12136	        -382.657	         384.912	         2.25524
     380	 2.04285	 1.13402	        -382.533	         384.802	         2.26886
     381	 2.03738	 1.16164	        -381.467	         383.776	         2.30946
     382	 2.02942	 1.19688	        -379.937	         382.285	          2.3484
     383	 2.02171	 1.23152	        -378.468	         380.838	         2.37084
     384	 2.01591	 1.26032	        -377.379	         379.751	         2.37174
     385	 2.01216	 1.28254	        -376.693	         379.048	         2.35545
     386	 2.00935	 1.30114	        -376.188	         378.522	         2.33374
     387	 2.00597	 1.32032	         -375.57	         377.888	         2.31877
     388	   2.001	 1.34285	        -374.638	         376.955	         2.31686
     389	 1.99436	 1.36861	        -373.384	         375.711	          2.3269
     390	 1.98696	 1.39466	        -371.978	         374.323	         2.34439
     391	 1.98026	 1.41634	        -370.702	         373.067	         2.36434
     392	 1.97594	 1.42844	        -369.874	         372.258	         2.38328
     393	 1.97558	 1.42618	        -369.792	          372.19	         2.39738
     394	 1.98028	 1.40622	        -370.669	         373.072	         2.40236
     395	  1.9904	 1.36773	         -372.57	         374.968	         2.39786
     396	 2.00542	 1.31255	        -375.399	         377.784	         2.38507
     397	 2.02403	 1.24499	        -378.911	         381.274	         2.36344
     398	 2.04415	 1.17177	        -382.713	         385.046	         2.33383
     399	 2.06305	 1.10156	        -386.286	         388.589	         2.30342
     400	 2.07796	 1.04318	        -389.102	         391.385	         2.28294
     401	  2.0869	 1.00301	        -390.784	         393.063	         2.27899
     402	 2.08926	0.983338	        -391.212	         393.504	         2.29113
     403	  2.0858	0.982112	        -390.538	         392.855	          2.3172
     404	 2.07862	 0.99338	        -389.153	         391.509	         2.35634
     405	 2.07095	 1.00777	        -387.665	         390.071	         2.40602
     406	 2.06675	 1.01371	        -386.834	         389.285	         2.45082
     407	 2.06942	 1.00118	        -387.322	         389.784	         2.46141
     408	 2.07962	0.968139	        -389.278	         391.697	         2.41861
     409	 2.09417	0.924128	        -392.085	         394.425	         2.34021
     410	 2.10726	0.886391	        -394.617	         396.879	         2.26211
     411	 2.11301	0.872041	        -395.755	         397.958	         2.20315
     412	  2.1073	0.892881	        -394.715	         396.886	         2.17121
     413	 2.08894	0.952233	        -391.249	         393.445	         2.19539
     414	 2.06208	 1.03848	         -386.09	         388.409	         2.31916
     415	  2.0378	 1.11918	        -381.378	         383.855	         2.47757
     416	  2.0277	 1.15864	        -379.487	         381.963	         2.47531
     417	 2.03221	 1.15569	        -380.479	         382.807	         2.32856
     418	 2.04137	 1.14079	        -382.293	         384.525	         2.23157
     419	 2.04688	 1.13792	        -383.326	         385.559	         2.23274
     420	  2.0472	 1.15089	        -383.348	         385.619	         2.27098
     421	 2.04417	 1.17384	        -382.765	          385.05	         2.28463
     422	 2.03855	 1.20423	         -381.74	         383.997	          2.2575
     423	  2.0288	 1.24648	        -379.939	         382.169	          2.2299
     424	 2.01351	 1.30444	        -377.055	         379.301	         2.24669
     425	 1.99433	 1.37262	        -373.399	         375.705	         2.30651
     426	 1.97586	 1.43669	        -369.877	         372.242	         2.36516
     427	  1.9626	 1.48273	        -367.373	         369.756	          2.3837
     428	 1.95631	 1.50528	        -366.206	         368.576	         2.37036
     429	 1.95627	  1.5063	        -366.216	         368.569	         2.35269
     430	 1.96109	 1.48978	        -367.131	         369.472	         2.34075
     431	 1.96964	 1.45907	        -368.743	         371.076	          2.3328
     432	 1.98102	 1.41716	         -370.89	         373.209	         2.31873
     433	  1.9938	 1.36859	        -373.313	         375.605	         2.29269
     434	 2.00592	 1.32018	        -375.604	         377.879	         2.27451
     435	 2.01613	 1.27669	        -377.497	         379.793	         2.29602
     436	 2.02588	 1.23472	         -379.27	          381.62	         2.35078
     437	 2.03847	 1.18493	        -381.606	         383.981	         2.37494
     438	 2.05488	 1.12473	        -384.728	         387.059	         2.33102
     439	 2.07161	 1.06529	        -387.924	         390.195	          2.2713
     440	 2.08376	 1.02155	        -390.222	         392.472	         2.25089
     441	 2.08891	 1.00063	        -391.169	         393.438	         2.26914
     442	 2.08763	 1.00074	        -390.898	         393.199	         2.30129
     443	 2.08197	 1.01583	        -389.807	         392.137	         2.33045
     444	 2.07407	 1.03942	        -388.306	         390.657	         2.35073
     445	 2.06561	 1.06634	        -386.708	          389.07	         2.36127
     446	 2.05759	 1.09321	        -385.204	         387.567	         2.36284
     447	 2.05042	 1.11848	        -383.862	         386.222	         2.35985
     448	 2.04416	 1.14168	        -382.689	         385.048	         2.35975
     449	 2.03904	 1.16198	         -381.72	         384.088	          2.3675
     450	 2.03567	 1.17747	         -381.08	         383.456	          2.3764
     451	 2.03463	 1.18645	        -380.887	         383.262	         2.37495
     452	 2.03571	 1.18967	        -381.103	         383.464	         2.36065
     453	 2.03778	 1.19062	        -381.509	         383.852	         2.34356
     454	  2.0395	 1.19342	         -381.84	         384.174	          2.3334
     455	 2.03997	 1.20067	        -381.933	         384.263	         2.33055
     456	 2.03896	 1.21307	        -381.741	         384.073	         2.33214
     457	 2.03665	 1.22999	        -381.304	         383.641	         2.33678
     458	 2.03362	 1.24975	        -380.727	         383.072	         2.34511
     459	 2.03073	 1.26974	        -380.177	          382.53	         2.35294
     460	 2.02879	  1.2875	        -379.818	         382.166	         2.34885
     461	 2.02773	 1.30311	        -379.644	         381.967	         2.32258
     462	   2.026	 1.32095	        -379.364	         381.644	         2.28021
     463	 2.02116	 1.34814	        -378.493	         380.736	         2.24285
     464	 2.01131	 1.39002	        -376.659	         378.888	         2.22939
     465	 1.99654	 1.44602	        -373.872	          376.12	         2.24761
     466	 1.97967	 1.50782	        -370.655	         372.956	         2.30136
     467	 1.96598	 1.55972	        -368.028	          370.39	         2.36174
     468	 1.96028	 1.58677	        -366.978	         369.321	         2.34342
     469	 1.96138	 1.59184	        -367.298	         369.528	         2.22962
     470	 1.96173	  1.5977	        -367.451	         369.592	         2.14139
     471	 1.95506	 1.62295	        -366.175	         368.341	         2.16663
     472	  1.9429	 1.66284	        -363.779	         366.063	          2.2838
     473	 1.93344	 1.69306	        -361.887	         364.288	          2.4013
     474	 1.93479	  1.6895	        -362.114	         364.541	         2.42762
     475	 1.94857	 1.64771	        -364.766	         367.125	         2.35926
     476	 1.96943	 1.58419	        -368.763	         371.036	         2.27221
     477	 1.99003	 1.52106	        -372.672	         374.898	         2.22611
     478	  2.0056	 1.47265	        -375.593	         377.819	         2.22619
     479	 2.01494	 1.44293	        -377.317	         379.569	         2.25189
     480	 2.01916	 1.42904	        -378.076	          380.36	         2.28429
     481	 2.02035	 1.42535	        -378.268	         380.584	          2.3165
     482	 2.02087	 1.42536	        -378.334	         380.681	         2.34783
     483	 2.02306	 1.42247	        -378.719	         381.091	         2.37219
     484	 2.02863	 1.41174	         -379.76	         382.137	         2.37628
     485	 2.03777	 1.39276	        -381.495	          383.85	         2.35474
     486	 2.04878	 1.37071	        -383.594	         385.914	         2.32043
     487	 2.05892	  1.3538	        -385.528	         387.816	         2.28823
     488	  2.0655	 1.34998	        -386.785	         389.049	         2.26327
     489	 2.06635	  1.3655	        -386.966	         389.209	         2.24339
     490	 2.05994	 1.40468	        -385.777	         388.006	         2.22918
     491	 2.04545	 1.46953	        -383.062	          385.29	         2.22734
     492	 2.02334	 1.55814	        -378.897	         381.144	           2.247
     493	 1.99598	 1.66292	         -373.72	         376.014	         2.29401
     494	 1.96789	 1.76987	        -368.392	         370.748	         2.35685
     495	 1.94463	 1.86185	        -363.984	         366.386	         2.40238
     496	 1.93025	 1.92612	        -361.288	         363.691	         2.40286
     497	  1.9254	 1.96042	        -360.416	         362.781	         2.36571
     498	  1.9277	 1.97161	         -360.89	         363.212	         2.32198
     499	 1.93386	 1.96927	        -362.075	         364.367	         2.29224
     500	 1.94135	 1.96087	        -363.497	         365.772	         2.27505
     501	 1.94855	 1.95129	        -364.861	          367.12	         2.25938
     502	 1.95418	 1.94447	        -365.935	         368.178	          2.2424
     503	 1.95737	 1.94355	        -366.534	         368.775	         2.24078
     504	 1.95861	 1.94775	        -366.737	         369.007	         2.27054
     505	 1.96047	 1.95004	        -367.048	         369.356	         2.30802
     506	 1.96564	 1.94259	        -368.027	         370.326	         2.29927
     507	 1.97346	 1.92737	        -369.557	         371.792	         2.23505
     508	 1.97952	 1.91737	        -370.752	         372.928	         2.17583
     509	 1.97976	 1.92423	        -370.794	         372.974	         2.17991
     510	 1.97463	 1.94593	         -369.76	         372.011	         2.25164
     511	 1.96953	 1.96582	        -368.707	         371.055	         2.34739
     512	 1.97139	  1.9627	        -369.007	         371.403	         2.39599
     513	 1.98344	 1.92647	        -371.308	         373.662	         2.35493
     514	 2.00242	 1.86675	        -374.955	         377.222	           2.267
     515	 2.02139	 1.80427	        -378.572	         380.779	         2.20759
     516	 2.03495	 1.75496	        -381.115	         383.321	         2.20602
     517	 2.04181	  1.7225	        -382.361	         384.608	         2.24736
     518	 2.04419	 1.70055	         -382.75	         385.053	         2.30313
     519	 2.04561	 1.67891	        -382.974	         385.319	         2.34514
     520	 2.04879	 1.64984	        -383.559	         385.917	         2.35823
     521	 2.05447	 1.61165	        -384.635	         386.982	         2.34742
     522	 2.06162	 1.56785	        -385.995	         388.323	         2.32794
     523	 2.06851	 1.52403	        -387.302	         389.613	         2.31107
     524	 2.07357	 1.48521	        -388.262	         390.563	         2.30036
     525	 2.07583	 1.45468	        -388.686	         390.986	         2.29941
     526	 2.07519	 1.43305	        -388.553	         390.867	           2.314
     527	 2.07286	 1.41714	        -388.085	          390.43	         2.34489
     528	 2.07118	 1.40018	        -387.737	         390.115	         2.37834
     529	 2.07257	 1.37506	        -387.984	         390.376	         2.39155
     530	 2.07796	 1.33913	         -389.01	         391.385	         2.37569
     531	 2.08615	 1.29599	        -390.577	         392.922	         2.34528
     532	 2.09484	  1.2526	        -392.229	         394.551	         2.32244
     533	 2.10212	 1.21463	        -393.598	         395.916	         2.31771
     534	 2.10734	 1.18395	        -394.568	         396.895	         2.32707
     535	  2.1109	 1.15934	        -395.225	         397.562	         2.33659
     536	 2.11327	 1.13928	        -395.671	         398.006	         2.33518
     537	 2.11426	 1.12424	        -395.866	         398.192	         2.32614
     538	  2.1132	 1.11615	         -395.67	         397.993	         2.32262
     539	 2.10982	 1.11565	        -395.026	          397.36	         2.33448
     540	 2.10499	 1.12016	        -394.095	         396.453	         2.35793
     541	 2.10037	 1.12458	        -393.209	         395.587	         2.37809
     542	 2.09746	 1.12437	        -392.661	         395.043	         2.38112
     543	 2.09662	 1.11846	        -392.519	         394.884	          2.3649
     544	 2.09684	 1.10969	        -392.587	         394.926	         2.33848
     545	 2.09645	 1.10291	        -392.538	         394.852	         2.31341
     546	 2.09399	 1.10231	        -392.089	         394.391	         2.30213
     547	 2.08922	 1.10872	        -391.183	         393.497	         2.31427
     548	 2.08364	 1.11774	        -390.108	         392.451	         2.34386
     549	 2.07985	 1.12169	        -389.379	         391.739	         2.36067
     550	 2.07929	 1.11606	        -389.297	         391.635	         2.33795
     551	  2.0807	 1.10468	        -389.601	         391.899	         2.29809
     552	 2.08158	 1.09521	        -389.775	         392.065	         2.28998
     553	 2.08129	 1.08959	        -389.691	          392.01	         2.31895
     554	 2.08153	 1.08262	        -389.704	         392.055	         2.35036
     555	 2.08433	 1.06843	        -390.218	         392.581	           2.363
     556	 2.09041	 1.04524	        -391.364	         393.721	         2.35674
     557	 2.09893	 1.01579	        -392.979	         395.317	         2.33762
     558	 2.10796	0.986016	        -394.697	          397.01	         2.31276
     559	  2.1151	0.963227	        -396.063	          398.35	         2.28605
     560	 2.11793	0.954687	        -396.618	          398.88	         2.26213
     561	 2.11445	 0.96624	        -395.982	         398.227	         2.24512
     562	 2.10343	 1.00108	        -393.925	         396.161	         2.23601
     563	 2.08471	 1.05914	        -390.411	         392.651	         2.24016
     564	 2.05957	 1.13605	        -385.667	         387.937	         2.26994
     565	 2.03136	 1.22131	        -380.322	         382.648	          2.3257
     566	 2.00512	 1.29942	        -375.348	         377.727	         2.37902
     567	 1.98538	 1.35645	        -371.629	         374.027	          2.3978
     568	 1.97389	 1.38698	        -369.497	         371.872	         2.37549
     569	 1.96913	  1.3953	        -368.646	         370.981	          2.3346
     570	 1.96816	 1.39023	        -368.482	         370.798	         2.31608
     571	 1.96945	 1.37636	          -368.7	         371.041	         2.34073
     572	  1.9743	 1.34993	        -369.572	          371.95	         2.37872
     573	 1.98477	 1.30486	         -371.53	         373.913	         2.38272
     574	 2.00058	 1.24225	         -374.53	         376.877	          2.3462
     575	  2.0186	 1.17182	        -377.953	         380.256	          2.3033
     576	 2.03507	 1.10508	        -381.061	         383.344	         2.28347
     577	 2.04775	 1.04892	        -383.431	         385.721	          2.2898
     578	 2.05641	 1.00432	        -385.034	         387.345	         2.31075
     579	 2.06211	0.968519	        -386.082	         388.415	         2.33265
     580	 2.06617	0.938057	        -386.831	         389.175	         2.34377
     581	  2.0692	0.911403	        -387.407	         389.744	         2.33728
     582	 2.07059	0.890542	        -387.695	         390.004	          2.3091
     583	 2.06826	0.881476	        -387.308	         389.566	         2.25869
     584	 2.05888	0.893526	         -385.61	         387.809	          2.1987
     585	  2.0396	0.935012	        -382.005	         384.193	         2.18807
     586	 2.01285	0.999861	        -376.849	         379.177	         2.32793
     587	 1.99134	  1.0511	        -372.603	         375.144	         2.54044
     588	 1.98942	 1.04382	        -372.285	         374.785	         2.49969
     589	 2.00462	0.986083	        -375.351	         377.635	         2.28403
     590	 2.02163	0.925075	        -378.626	         380.824	         2.19799
     591	 2.03104	0.887439	        -380.351	         382.588	         2.23616
     592	 2.03287	0.872278	        -380.632	         382.932	         2.29976
     593	 2.03074	0.869357	        -380.183	         382.533	         2.34939
     594	 2.02815	0.868867	        -379.663	         382.046	          2.3831
     595	 2.02762	0.863602	        -379.546	         381.947	         2.40087
     596	 2.03044	0.849818	        -380.078	         382.476	         2.39779
     597	 2.03627	0.828539	        -381.196	         383.569	         2.37278
     598	 2.04312	0.805656	        -382.515	         384.853	          2.3378
     599	 2.04826	0.789244	        -383.506	         385.817	         2.31126
     600	 2.04959	0.785465	        -383.761	         386.066	         2.30489
     601	 2.04653	0.795833	        -383.174	         385.492	         2.31824
     602	 2.04008	0.817164	        -381.942	         384.283	           2.341
     603	  2.0321	0.843706	        -380.427	         382.787	         2.36017
     604	 2.02431	0.870073	         -378.96	         381.327	         2.36667
     605	 2.01767	0.893219	        -377.718	         380.081	         2.36335
     606	 2.01251	0.912092	        -376.754	         379.113	         2.35912
     607	 2.00888	0.926366	        -376.085	         378.433	         2.34853
     608	 2.00616	0.937682	        -375.606	         377.923	         2.31678
     609	  2.0022	0.952206	        -374.907	         377.181	         2.27403
     610	  1.9942	0.978215	        -373.427	          375.68	         2.25339
     611	 1.98088	 1.01919	        -370.913	         373.184	         2.27119
     612	  1.9638	 1.07021	        -367.666	          369.98	         2.31471
     613	 1.94648	 1.12046	        -364.376	         366.734	          2.3585
     614	 1.93259	 1.15885	         -361.75	         364.128	         2.37849
     615	  1.9241	 1.17932	        -360.165	         362.536	         2.37168
     616	 1.92117	 1.18156	        -359.621	         361.987	         2.36616
     617	 1.92382	 1.16579	          -360.1	         362.484	         2.38393
     618	 1.93313	  1.1289	        -361.829	         364.231	         2.40155
     619	 1.94984	 1.06893	        -364.976	         367.364	         2.38832
     620	 1.97256	0.990677	        -369.262	         371.624	         2.36142
     621	 1.99873	0.902539	        -374.182	          376.53	         2.34746
     622	 2.02629	0.811201	        -379.356	         381.697	         2.34107
     623	 2.05366	0.722012	        -384.503	          386.83	         2.32682
     624	 2.07885	 0.64164	         -389.25	         391.553	         2.30288
     625	 2.09927	 0.57839	        -393.106	         395.381	         2.27486
     626	 2.11217	0.540791	        -395.551	         397.799	          2.2481
     627	 2.11513	0.536098	        -396.129	         398.355	         2.22685
     628	 2.10653	0.568975	        -394.524	         396.742	          2.2179
     629	 2.08619	0.639555	        -390.692	          392.93	         2.23759
     630	 2.05666	0.740077	        -385.089	         387.393	         2.30427
     631	 2.02407	0.852066	        -378.877	         381.281	         2.40393
     632	 1.99635	0.951181	        -373.621	         376.084	         2.46264
     633	 1.97809	 1.02297	        -370.229	          372.66	         2.43078
     634	 1.96749	 1.07251	        -368.311	         370.673	         2.36269
     635	 1.95964	 1.11407	        -366.877	         369.201	         2.32375
     636	 1.95114	 1.15706	        -365.283	         367.607	         2.32421
     637	 1.94157	 1.20231	        -363.463	         365.812	         2.34872
     638	 1.93253	 1.24484	         -361.74	         364.117	         2.37754
     639	 1.92611	 1.27828	        -360.522	         362.913	         2.39148
     640	  1.9234	 1.29911	        -360.023	         362.407	         2.38349
     641	 1.92402	 1.30831	        -360.156	         362.522	         2.36585
     642	  1.9268	 1.30913	        -360.687	         363.043	         2.35638
     643	 1.93105	 1.30349	        -361.478	          363.84	         2.36138
     644	   1.937	 1.29057	        -362.582	         364.956	         2.37346
     645	  1.9453	 1.26849	        -364.134	         366.511	         2.37747
     646	 1.95603	 1.23714	        -366.156	         368.523	         2.36702
     647	 1.96828	  1.1995	        -368.472	          370.82	          2.3475
     648	 1.98049	  1.1605	         -370.78	          373.11	         2.33064
     649	 1.99133	 1.12445	        -372.816	         375.143	         2.32629
     650	 2.00034	 1.09299	        -374.497	         376.833	         2.33579
     651	  2.0081	 1.06466	        -375.935	         378.287	         2.35269
     652	  2.0157	 1.03643	        -377.345	         379.712	         2.36702
     653	 2.02407	 1.00573	        -378.907	         381.281	         2.37331
     654	 2.03353	0.971799	        -380.682	         383.054	         2.37205
     655	 2.04378	0.935711	        -382.612	         384.976	         2.36477
     656	 2.05403	0.899972	        -384.546	         386.899	         2.35279
     657	 2.06313	0.868143	        -386.267	         388.604	         2.33719
     658	 2.06973	0.844309	         -387.52	         389.842	         2.32171
     659	 2.07259	0.832208	        -388.068	         390.379	         2.31085
     660	 2.07092	 0.83419	        -387.756	         390.065	         2.30876
     661	 2.06466	0.850332	        -386.573	         388.891	         2.31761
     662	 2.05468	0.877953	        -384.684	         387.021	         2.33664
     663	 2.04266	0.911961	        -382.408	         384.767	         2.35936
     664	 2.03055	0.946442	        -380.121	         382.496	         2.37465
     665	 2.01971	0.977162	         -378.09	         380.464	         2.37426
     666	 2.01042	 1.00326	         -376.36	         378.722	         2.36183
     667	 2.00208	 1.02642	        -374.808	         377.158	         2.35044
     668	 1.99413	 1.04828	        -373.319	         375.668	         2.34872
     669	 1.98655	  1.0687	        -371.896	         374.246	         2.35013
     670	 1.97952	 1.08692	        -370.584	         372.928	         2.34362
     671	 1.97271	 1.10367	        -369.324	         371.651	         2.32708
     672	 1.96526	  1.1213	        -367.941	         370.255	         2.31413
     673	 1.95674	 1.14098	        -366.333	         368.657	         2.32311
     674	 1.94839	 1.15896	         -364.73	         367.092	           2.362
     675	 1.94348	 1.16554	        -363.764	         366.171	         2.40734
     676	 1.94542	 1.15036	        -364.115	         366.534	         2.41862
     677	 1.95512	 1.11076	        -365.958	         368.353	         2.39458
     678	  1.9709	 1.05211	        -368.937	         371.312	         2.37412
     679	  1.9907	0.980704	        -372.656	         375.024	         2.36796
     680	 2.01306	0.901021	        -376.858	         379.216	         2.35816
     681	 2.03634	0.818345	        -381.241	         383.583	         2.34209
     682	 2.05862	  0.7391	        -385.429	         387.759	         2.33034
     683	 2.07828	0.668599	        -389.119	         391.446	         2.32715
     684	 2.09446	0.609939	        -392.152	          394.48	         2.32801
     685	 2.10675	0.564747	        -394.456	         396.783	         2.32776
     686	 2.11485	0.534205	        -395.978	         398.303	         2.32525
     687	 2.11852	 0.51923	        -396.666	         398.991	         2.32467
     688	 2.11786	0.519612	        -396.533	         398.866	         2.33355
     689	 2.11376	0.532698	        -395.743	         398.098	         2.35435
     690	   2.108	0.553147	        -394.641	         397.018	         2.37754
     691	 2.10243	0.575256	        -393.591	         395.973	         2.38173
     692	 2.09747	0.597341	         -392.69	         395.044	         2.35412
     693	 2.09141	0.624122	        -391.598	         393.908	         2.30952
     694	 2.08161	 0.66311	        -389.781	          392.07	         2.28937
     695	 2.06753	0.715835	        -387.099	         389.431	         2.33213
     696	 2.05332	0.770183	        -384.334	         386.767	         2.43203
     697	 2.04671	0.803145	         -383.02	         385.526	         2.50591
     698	 2.05294	0.798835	        -384.225	         386.695	         2.46998
     699	 2.06945	0.765249	        -387.432	          389.79	         2.35828
     700	 2.08781	0.727665	         -390.97	         393.233	         2.26307
     701	 2.10007	0.709445	         -393.31	         395.532	         2.22168
     702	 2.10213	0.722298	        -393.696	         395.918	         2.22237
     703	 2.09357	0.767195	        -392.067	         394.313	         2.24612
     704	 2.07631	0.838106	        -388.796	         391.076	         2.28023
     705	 2.05353	0.925132	        -384.488	         386.805	         2.31663
     706	 2.02878	 1.01703	         -379.82	         382.164	         2.34439
     707	 2.00505	 1.10402	        -375.363	         377.715	         2.35198
     708	 1.98394	 1.18046	        -371.415	         373.757	         2.34207
     709	 1.96601	 1.24423	        -368.046	         370.395	         2.34902
     710	 1.95297	  1.2902	        -365.548	          367.95	         2.40185
     711	 1.94907	  1.3056	        -364.757	         367.218	         2.46154
     712	 1.95821	 1.27862	        -366.477	         368.933	         2.45588
     713	 1.97953	 1.21231	         -370.54	          372.93	         2.39009
     714	 2.00759	 1.12356	        -375.864	         378.191	         2.32713
     715	  2.0365	 1.03041	        -381.314	         383.611	         2.29682
     716	 2.06249	0.944513	        -386.194	         388.485	         2.29095
     717	 2.08392	0.871522	        -390.204	         392.502	         2.29825
     718	 2.10049	0.813086	        -393.295	          395.61	         2.31518
     719	  2.1129	0.767869	          -395.6	         397.938	         2.33758
     720	 2.12241	0.732643	        -397.363	          399.72	         2.35706
     721	 2.13014	0.704346	        -398.806	          401.17	         2.36438
     722	 2.13647	0.682096	        -399.998	         402.357	         2.35827
     723	 2.14088	0.667554	        -400.837	         403.183	         2.34553
     724	  2.1424	 0.66361	        -401.134	         403.467	         2.33314
     725	 2.14014	0.672813	        -400.721	         403.045	         2.32421
     726	 2.13361	0.696532	          -399.5	          401.82	          2.3198
     727	 2.12283	0.734473	        -397.475	         399.799	         2.32351
     728	 2.10868	0.783897	        -394.806	         397.146	         2.33999
     729	 2.09305	0.838977	        -391.851	         394.215	         2.36414
     730	 2.07829	0.892337	        -389.074	         391.447	         2.37322
     731	 2.06559	0.939861	         -386.72	         389.066	         2.34648
     732	 2.05369	0.984719	        -384.539	         386.836	         2.29656
     733	 2.03994	 1.03443	        -381.989	         384.257	         2.26787
     734	 2.02337	 1.09167	        -378.851	         381.149	         2.29853
     735	 2.00723	 1.14684	        -375.744	         378.123	         2.37926
     736	 1.99781	 1.18118	        -373.927	         376.358	         2.43022
     737	 1.99862	  1.1839	        -374.147	         376.509	         2.36227
     738	 2.00482	 1.16926	         -375.47	         377.672	         2.20126
     739	 2.00549	 1.17008	        -375.718	         377.797	         2.07863
     740	 1.99354	 1.20869	        -373.414	         375.556	         2.14207
     741	 1.97607	 1.26631	        -369.881	         372.282	         2.40085
     742	 1.97071	 1.28927	        -368.805	         371.276	         2.47109
     743	 1.98146	 1.26491	        -371.074	         373.292	         2.21849
     744	  1.9918	 1.24508	        -373.171	         375.231	         2.06055
     745	 1.98812	 1.26877	        -372.429	          374.54	         2.11081
     746	 1.97158	 1.33047	        -369.191	          371.44	         2.24885
     747	 1.95171	 1.40153	        -365.345	         367.714	         2.36929
     748	 1.93771	 1.45449	        -362.677	         365.089	         2.41253
     749	 1.93354	 1.47751	        -361.918	         364.306	         2.38789
     750	 1.93792	 1.47409	         -362.79	         365.127	         2.33735
     751	 1.94704	 1.45495	        -364.555	         366.839	         2.28364
     752	 1.95662	 1.43236	        -366.398	         368.635	          2.2377
     753	  1.9632	 1.41644	         -367.65	         369.868	         2.21878
     754	 1.96578	 1.41057	        -368.098	         370.353	         2.25485
     755	 1.96746	  1.4063	         -368.33	         370.667	         2.33683
     756	 1.97383	 1.38725	        -369.482	         371.861	         2.37898
     757	 1.98738	 1.34649	        -372.063	         374.402	         2.33903
     758	 2.00504	 1.29442	        -375.422	         377.714	         2.29182
     759	  2.0224	 1.24477	        -378.686	         380.968	         2.28173
     760	 2.03709	 1.20448	         -381.44	         383.722	         2.28224
     761	 2.04794	 1.17711	        -383.486	         385.757	         2.27099
     762	  2.0535	 1.16712	        -384.548	           386.8	         2.25205
     763	 2.05222	 1.17913	        -384.315	         386.559	         2.24412
     764	 2.04373	 1.21414	        -382.702	         384.968	         2.26672
     765	 2.03028	 1.26554	        -380.118	         382.447	         2.32835
     766	  2.0169	  1.3183	        -377.539	         379.937	          2.3982
     767	 2.00881	 1.35641	        -376.005	          378.42	         2.41532
     768	 2.00738	 1.37537	        -375.785	         378.152	         2.36648
     769	 2.00928	 1.38479	        -376.205	         378.508	         2.30297
     770	 2.00976	  1.3982	        -376.334	         378.598	         2.26437
     771	 2.00577	 1.42393	        -375.596	          377.85	         2.25475
     772	 1.99677	  1.4631	        -373.897	         376.163	         2.26579
     773	 1.98414	 1.51125	        -371.511	         373.794	         2.28264
     774	 1.97001	 1.56159	        -368.855	         371.145	         2.28985
     775	 1.95613	 1.60849	        -366.258	         368.543	         2.28509
     776	 1.94364	 1.64828	        -363.913	           366.2	          2.2865
     777	 1.93433	 1.67584	        -362.122	         364.455	         2.33341
     778	 1.93279	 1.67809	        -361.751	         364.166	         2.41505
     779	 1.94422	   1.639	        -363.901	         366.309	         2.40799
     780	 1.96735	  1.5626	        -368.347	         370.646	         2.29893
     781	  1.9939	 1.47485	        -373.405	         375.624	         2.21909
     782	 2.01634	 1.39839	        -377.624	         379.832	         2.20793
     783	  2.0318	 1.34179	        -380.504	         382.731	         2.22737
     784	 2.04043	 1.30519	        -382.095	          384.35	         2.25459
     785	 2.04363	 1.28516	        -382.662	          384.95	         2.28721
     786	 2.04352	 1.27595	        -382.605	         384.928	         2.32262
     787	  2.0425	 1.27074	        -382.387	         384.737	         2.35038
     788	  2.0425	 1.26408	        -382.378	         384.737	         2.35976
     789	 2.04412	 1.25436	        -382.693	          385.04	         2.34736
     790	 2.04636	 1.24466	        -383.139	          385.46	          2.3208
     791	 2.04715	 1.24115	        -383.316	         385.608	          2.2924
     792	 2.04425	 1.25041	        -382.794	         385.065	         2.27044
     793	 2.03599	 1.27723	        -381.259	         383.516	         2.25724
     794	 2.02157	 1.32363	        -378.558	         380.813	         2.25425
     795	 2.00136	 1.38821	        -374.754	         377.023	         2.26871
     796	 1.97735	 1.46466	        -370.214	         372.521	         2.30648
     797	 1.95328	 1.54137	        -365.654	         368.008	         2.35382
     798	 1.93351	 1.60478	        -361.912	         364.301	          2.3891
     799	  1.9215	 1.64424	        -359.633	         362.049	         2.41528
     800	  1.9197	 1.65221	        -359.271	         361.711	         2.44035
     801	 1.92977	 1.62339	        -361.156	         363.599	         2.44367
     802	 1.95137	 1.55859	        -365.243	          367.65	          2.4074
     803	 1.98126	 1.46773	        -370.902	         373.254	         2.35191
     804	 2.01463	 1.36562	        -377.201	         379.512	         2.31098
     805	 2.04743	  1.2649	        -383.367	         385.661	          2.2941
     806	 2.07721	 1.17349	        -388.957	         391.245	         2.28848
     807	 2.10251	 1.09656	        -393.707	         395.989	         2.28153
     808	 2.12202	 1.03883	        -397.376	         399.646	          2.2704
     809	 2.13432	 1.00518	        -399.695	         401.953	         2.25814
     810	 2.13815	0.999823	        -400.423	         402.672	         2.24894
     811	 2.13271	 1.02528	        -399.405	          401.65	         2.24507
     812	 2.11787	 1.08167	        -396.621	         398.868	          2.2471
     813	 2.09427	  1.1665	        -392.188	         394.445	         2.25624
     814	 2.06348	 1.27437	        -386.392	         388.672	         2.27988
     815	  2.0284	 1.39571	        -379.768	         382.093	          2.3248
     816	 1.99342	 1.51632	        -373.156	         375.534	         2.37825
     817	 1.96334	 1.62083	        -367.481	         369.894	         2.41326
     818	  1.9415	 1.69844	        -363.375	           365.8	          2.4254
     819	 1.92943	 1.74425	        -361.104	         363.536	         2.43291
     820	 1.92778	 1.75603	        -360.787	         363.227	         2.43961
     821	 1.93668	 1.73336	        -362.464	         364.896	         2.43196
     822	 1.95504	 1.67988	        -365.936	         368.339	         2.40252
     823	 1.98007	 1.60457	        -370.672	          373.03	         2.35869
     824	 2.00779	 1.52005	        -375.914	         378.228	         2.31382
     825	 2.03409	  1.4394	        -380.883	         383.161	         2.27773
     826	 2.05557	 1.37362	        -384.933	         387.188	         2.25501
     827	 2.06997	 1.33022	        -387.641	         389.887	         2.24667
     828	  2.0763	 1.31273	        -388.826	         391.075	         2.24963
     829	 2.07466	 1.32134	        -388.511	         390.766	         2.25495
     830	  2.0655	  1.3547	        -386.797	          389.05	         2.25255
     831	 2.04906	 1.41191	        -383.726	         385.967	         2.24122
     832	 2.02529	 1.49257	        -379.274	         381.509	         2.23539
     833	  1.9949	 1.59389	        -373.555	         375.812	         2.25673
     834	 1.96083	 1.70644	        -367.107	         369.423	         2.31649
     835	 1.92878	 1.81262	        -361.016	         363.415	         2.39935
     836	 1.90576	 1.89096	        -356.643	         359.098	         2.45594
     837	 1.89635	 1.92713	        -354.895	         357.334	         2.43896
     838	 1.89965	 1.92357	         -355.59	         357.953	         2.36274
     839	 1.91007	 1.89691	        -357.626	         359.906	         2.28032
     840	 1.92094	 1.86691	        -359.721	         361.944	         2.22287
     841	  1.9272	  1.8486	        -360.922	         363.119	         2.19664
     842	  1.9264	 1.84954	        -360.767	         362.967	         2.20037
     843	 1.91875	 1.86938	          -359.3	         361.534	         2.23336
     844	 1.90709	 1.90017	        -357.055	         359.347	         2.29146
     845	 1.89627	 1.92783	        -354.961	         357.319	         2.35787
     846	 1.89162	 1.93677	        -354.048	         356.447	         2.39871
     847	 1.89627	 1.91768	        -354.936	         357.318	         2.38228
     848	 1.90891	 1.87428	        -357.377	         359.689	         2.31203
     849	 1.92423	  1.8223	        -360.326	         362.561	         2.23494
     850	 1.93619	  1.7795	        -362.607	         364.804	         2.19712
     851	 1.94148	 1.75546	        -363.588	         365.797	         2.20811
     852	 1.94061	 1.74863	        -363.377	         365.633	         2.25616
     853	  1.9372	 1.74847	        -362.667	         364.993	         2.32584
     854	 1.93658	 1.73948	        -362.485	         364.877	         2.39207
     855	 1.94363	 1.70741	        -363.777	         366.198	         2.42101
     856	 1.96025	 1.64682	        -366.918	         369.314	         2.39601
     857	 1.98422	 1.56458	        -371.475	         373.809	         2.33419
     858	  2.0104	 1.47627	        -376.445	         378.718	         2.27273
     859	 2.03348	   1.398	        -380.804	         383.045	          2.2416
     860	 2.05028	 1.33949	        -383.948	         386.196	         2.24826
     861	 2.06053	 1.30201	        -385.836	         388.117	         2.28085
     862	 2.06605	 1.28052	        -386.833	         389.152	           2.319
     863	 2.06929	 1.26809	        -387.416	         389.759	         2.34375
     864	  2.0719	 1.26004	        -387.902	          390.25	         2.34759
     865	 2.07413	 1.25571	        -388.332	         390.668	         2.33525
     866	 2.07508	 1.25767	         -388.53	         390.845	         2.31529
     867	 2.07331	 1.26982	        -388.221	         390.514	         2.29338
     868	 2.06739	 1.29607	        -387.128	         389.404	         2.27578
     869	 2.05635	 1.33879	        -385.063	         387.333	         2.27042
     870	 2.04027	 1.39722	        -382.036	         384.318	         2.28208
     871	 2.02058	 1.46654	        -378.319	         380.628	         2.30873
     872	 1.99994	 1.53837	        -374.413	         376.758	         2.34502
     873	 1.98169	 1.60235	        -370.954	         373.335	         2.38132
     874	 1.96897	  1.6487	        -368.549	          370.95	         2.40113
     875	 1.96346	 1.67197	        -367.526	         369.917	         2.39098
     876	 1.96447	 1.67386	        -367.749	         370.106	         2.35724
     877	 1.96942	 1.66179	        -368.712	         371.034	         2.32197
     878	 1.97541	 1.64416	        -369.856	         372.158	         2.30202
     879	 1.98058	  1.6265	        -370.825	         373.127	         2.30118
     880	 1.98449	  1.6102	        -371.544	          373.86	         2.31562
     881	 1.98796	 1.59317	        -372.174	         374.511	         2.33778
     882	 1.99248	 1.57146	        -373.001	         375.358	         2.35719
     883	  1.9993	 1.54171	        -374.277	         376.638	         2.36061
     884	 2.00853	   1.504	        -376.028	         378.368	         2.34009
     885	 2.01852	 1.46341	        -377.942	          380.24	         2.29759
     886	  2.0261	 1.42932	        -379.417	         381.662	         2.24472
     887	 2.02759	 1.41252	         -379.74	         381.941	         2.20054
     888	 2.02038	 1.42053	        -378.394	         380.589	         2.19486
     889	 2.00533	 1.45097	        -375.506	         377.767	         2.26069
     890	 1.98862	 1.48584	         -372.25	         374.634	          2.3845
     891	 1.97979	 1.49665	        -370.513	         372.979	         2.46569
     892	  1.9847	 1.46576	        -371.472	         373.899	         2.42718
     893	 2.00068	 1.40171	        -374.566	         376.895	         2.32877
     894	 2.01998	 1.32793	        -378.256	         380.514	         2.25772
     895	  2.0359	 1.26427	        -381.267	           383.5	         2.23288
     896	 2.04513	 1.22074	        -382.991	          385.23	         2.23872
     897	 2.04708	 1.19944	        -383.335	         385.596	         2.26103
     898	 2.04294	 1.19737	        -382.526	          384.82	         2.29337
     899	 2.03492	 1.20834	        -380.986	         383.316	         2.32969
     900	 2.02567	 1.22473	        -379.223	         381.582	         2.35859
     901	 2.01728	 1.24038	        -377.642	         380.009	         2.36667
     902	 2.01041	 1.25331	        -376.366	          378.72	         2.35399
     903	 2.00426	 1.26584	        -375.232	         377.568	         2.33573
     904	 1.99763	 1.28149	        -373.997	         376.324	         2.32751
     905	 1.98997	 1.30166	        -372.556	         374.888	         2.33243
     906	 1.98172	  1.3248	        -370.999	         373.341	         2.34211
     907	 1.97374	 1.34801	        -369.498	         371.845	         2.34681
     908	 1.96665	 1.36912	         -368.17	         370.514	         2.34455
     909	 1.96063	 1.38716	        -367.046	         369.386	         2.34007
     910	 1.95569	 1.40167	        -366.125	         368.459	         2.33383
     911	 1.95165	 1.41264	        -365.381	         367.702	         2.32067
     912	 1.94794	 1.42134	        -364.703	         367.007	         2.30345
     913	 1.94396	 1.42945	        -363.959	         366.261	         2.30168
     914	 1.94041	 1.43518	        -363.261	         365.594	         2.33288
     915	 1.94011	 1.43045	        -363.162	          365.54	         2.37783
     916	 1.94634	 1.40566	        -364.328	         366.708	         2.37955
     917	 1.95906	 1.36118	        -366.766	         369.091	         2.32496
     918	 1.97424	 1.30954	         -369.66	         371.938	          2.2773
     919	 1.98784	  1.2631	        -372.211	         374.489	         2.27798
     920	 1.99885	 1.22489	        -374.247	         376.552	         2.30516
     921	 2.00829	 1.19188	            -376	         378.323	          2.3238
     922	 2.01706	 1.16173	        -377.641	         379.967	         2.32582
     923	 2.02505	 1.13494	        -379.143	         381.465	         2.32163
     924	 2.03171	 1.11305	        -380.397	         382.715	          2.3179
     925	 2.03654	 1.09733	        -381.306	          383.62	         2.31375
     926	 2.03918	 1.08858	          -381.8	         384.114	         2.31372
     927	 2.03972	 1.08627	         -381.89	         384.216	         2.32619
     928	 2.03931	 1.08697	        -381.784	         384.138	         2.35426
     929	 2.04008	 1.08419	        -381.901	         384.284	         2.38292
     930	 2.04406	 1.07192	        -382.645	         385.029	         2.38412
     931	 2.05114	 1.05036	        -384.013	         386.357	          2.3446
     932	 2.05835	 1.02843	        -385.423	         387.708	         2.28458
     933	 2.06123	 1.01931	        -386.009	         388.249	         2.24035
     934	 2.05659	 1.03239	        -385.141	         387.379	         2.23795
     935	  2.0445	 1.06738	        -382.828	         385.113	          2.2848
     936	  2.0289	 1.11268	        -379.818	         382.186	         2.36805
     937	  2.0164	  1.1487	        -377.393	         379.843	         2.45008
     938	 2.01331	 1.15675	        -376.785	         379.263	         2.47873
     939	 2.02183	  1.1303	        -378.431	         380.861	         2.42969
     940	 2.03846	 1.07995	        -381.645	          383.98	         2.33568
     941	 2.05634	 1.02658	        -385.073	         387.331	         2.25788
     942	 2.06945	0.988384	        -387.558	         389.791	         2.23313
     943	 2.07551	0.972701	        -388.674	         390.926	         2.25163
     944	 2.07525	0.977657	        -388.607	         390.877	         2.27011
     945	 2.06968	 1.00058	        -387.574	         389.834	         2.25973
     946	 2.05811	 1.04377	         -385.43	         387.665	         2.23467
     947	 2.03904	 1.11163	         -381.86	         384.089	         2.22848
     948	 2.01246	 1.20378	        -376.844	         379.104	         2.26047
     949	 1.98126	 1.31109	         -370.93	         373.255	         2.32457
     950	  1.9508	 1.41706	        -365.149	         367.544	         2.39479
     951	  1.9269	 1.50388	        -360.621	         363.061	         2.44042
     952	 1.91349	 1.55926	        -358.102	         360.548	         2.44587
     953	 1.91145	 1.58016	        -357.749	         360.166	         2.41669
     954	 1.91875	   1.572	        -359.166	         361.533	         2.36643
     955	 1.93151	 1.54556	        -361.614	         363.926	         2.31174
     956	 1.94543	 1.51295	        -364.265	         366.536	         2.27095
     957	 1.95725	 1.48322	        -366.494	         368.752	         2.25818
     958	 1.96591	 1.45897	        -368.097	         370.377	         2.27935
     959	 1.97302	 1.43518	        -369.381	         371.709	         2.32816
     960	 1.98219	 1.40099	        -371.051	         373.429	         2.37836
     961	 1.99691	 1.34609	        -373.798	         376.188	         2.39037
     962	 2.01783	 1.26897	        -377.756	         380.111	         2.35575
     963	 2.04224	 1.17872	        -382.379	         384.688	         2.30824
     964	 2.06617	  1.0882	        -386.896	         389.176	         2.27957
     965	 2.08675	 1.00704	        -390.763	         393.034	         2.27117
     966	 2.10255	0.940395	        -393.728	         395.996	         2.26788
     967	 2.11272	0.891588	        -395.645	         397.902	         2.25727
     968	 2.11619	0.864335	        -396.313	         398.553	         2.24007
     969	  2.1118	0.862399	        -395.499	         397.731	         2.23105
     970	 2.09938	0.886429	        -393.153	         395.403	         2.24921
     971	 2.08092	0.930485	        -389.645	         391.941	         2.29622
     972	 2.06046	0.982256	        -385.757	         388.104	         2.34773
     973	 2.04227	 1.02858	        -382.321	         384.694	         2.37249
     974	 2.02862	 1.06224	        -379.772	         382.134	         2.36253
     975	 2.01912	 1.08394	        -378.016	         380.353	         2.33678
     976	 2.01199	  1.0985	        -376.696	         379.016	         2.32003
     977	 2.00585	 1.10969	        -375.543	         377.864	         2.32139
     978	 2.00045	 1.11793	        -374.521	         376.853	         2.33272
     979	 1.99636	 1.12154	        -373.742	         376.086	         2.34485
     980	 1.99431	 1.11848	        -373.343	         375.702	         2.35831
     981	 1.99515	 1.10645	        -373.484	         375.859	         2.37534
     982	  1.9998	 1.08294	        -374.346	         376.732	         2.38523
     983	  2.0085	  1.0474	        -375.988	         378.363	         2.37445
     984	 2.01997	 1.00387	        -378.167	         380.513	         2.34675
     985	 2.03171	0.960098	        -380.393	         382.714	         2.32034
     986	 2.04127	0.923589	        -382.196	         384.506	         2.30979
     987	 2.04743	0.898259	        -383.342	         385.661	         2.31867
     988	 2.05048	0.883526	        -383.893	         386.234	         2.34039
     989	 2.05178	0.875672	        -384.116	         386.478	         2.36189
     990	 2.05274	0.870713	        -384.287	         386.656	         2.36885
     991	 2.05379	0.867409	        -384.499	         386.854	         2.35548
     992	 2.05403	  0.8685	         -384.57	         386.898	         2.32819
     993	 2.05158	0.879348	        -384.139	         386.439	          2.2996
     994	  2.0446	0.905106	        -382.849	         385.131	         2.28132
     995	 2.03218	0.948097	         -380.52	         382.801	          2.2808
     996	 2.01492	 1.00607	        -377.262	         379.566	         2.30321
     997	 1.99531	 1.07133	        -373.541	         375.889	         2.34822
     998	  1.9775	 1.13126	        -370.146	          372.55	         2.40357
     999	 1.96618	 1.17171	        -367.984	         370.427	         2.44265
